File: AFM Rheology Data/Rheology_results_allChrms.txt
	Filename	Contact Point [nm]	Oscillation Frequency [Hz]	Force Amplitude [N]	Phase Delta [deg]	Indentation Amplitude [m]	Force Phase [deg]	Young Modulus [Pa]	Storage Modulus E' [Pa]	Loss Modulus E'' [Pa]	Shear Storage G' [Pa]	Shear Loss G'' [Pa]	Loss Tan
8	Chromosome3	8676.43	20.0	4.92179e-11	27.6082	9.68153e-09	24.8467	2572.44	2279.54	1192.13	759.846	397.377	0.52297
26	Chromosome16	4320.35	200.0	3.92547e-11	23.6411	9.30335e-09	3.94058	2173.74	1991.31	871.682	663.77	290.561	0.437743
37	Chromosome16	4763.71	200.0	6.11678e-11	24.4219	9.16037e-09	4.27293	3136.51	2855.88	1296.8	951.959	432.267	0.454082
44	Chromosome16	3655.68	200.0	7.83348e-11	22.3966	9.02796e-09	1.87011	4206.15	3888.87	1602.61	1296.29	534.203	0.412101
62	Chromosome4	8875.85	20.0	9.57046e-11	23.9667	9.35896e-09	20.5195	4642.81	4242.51	1885.94	1414.17	628.645	0.444533
78	Chromosome7	8787.19	20.0	4.51678e-11	24.1635	9.6999e-09	21.5645	2080.67	1898.37	851.707	632.789	283.902	0.448652
92	Chromosome7	9044.18	20.0	5.52352e-11	28.4752	9.64522e-09	25.5503	2524.62	2219.2	1203.68	739.734	401.228	0.542395
111	Chromosome6	9068.13	2.0	4.05783e-11	13.5307	9.71236e-09	12.9557	1874.19	1822.17	438.498	607.39	146.166	0.240646
137	Chromosome20	4331.62	2.0	6.11256e-11	18.0569	9.57545e-09	17.0788	3343.71	3179.03	1036.42	1059.68	345.474	0.326018
162	Chromosome14	3505.55	2.0	5.06115e-11	26.0107	9.66728e-09	24.895	2815.04	2529.91	1234.5	843.305	411.501	0.487963
185	Chromosome5	8194.27	2.0	1.83588e-10	18.0374	8.71777e-09	15.4781	9544.07	9075.03	2955.2	3025.01	985.067	0.325641
209	Chromosome12	7651.98	200.0	1.87518e-10	8.80612	8.23837e-09	349.097	18883.3	18660.7	2890.87	6220.24	963.624	0.154918
224	Chromosome12	9307.87	200.0	3.9709e-10	13.9589	6.75262e-09	351.245	25778.4	25017.1	6218.43	8339.05	2072.81	0.248567
234	Chromosome9	9281.69	2.0	7.43695e-11	8.25439	9.46308e-09	7.62893	3518.35	3481.9	505.124	1160.63	168.375	0.145071
242	Chromosome9	9269.76	2.0	7.58273e-11	9.62279	9.45445e-09	8.91313	3539.9	3490.09	591.732	1163.36	197.244	0.169546
263	Chromosome14	2868.65	20.0	8.94253e-11	27.8866	9.42041e-09	24.2243	6111.0	5401.36	2858.26	1800.45	952.754	0.529174
284	Chromosome12	7681.36	2.0	1.13678e-10	6.39367	9.17555e-09	5.68492	9798.08	9737.14	1091.11	3245.71	363.702	0.112056
299	Chromosome12	9324.75	2.0	3.63752e-10	7.79013	7.36343e-09	5.54688	21635.7	21436.0	2932.61	7145.35	977.537	0.136807
312	Chromosome18	4032.08	2.0	1.59036e-10	13.5424	8.86838e-09	11.7977	8638.09	8397.92	2022.74	2799.31	674.248	0.240862
333	Chromosome12	8572.72	20.0	8.68965e-11	7.0058	9.37179e-09	4.74837	4909.18	4872.53	598.772	1624.18	199.591	0.122887
342	Chromosome12	9436.51	20.0	5.59213e-11	7.67457	9.59702e-09	5.55353	2677.64	2653.66	357.589	884.553	119.196	0.134753
368	Chromosome5	8742.09	20.0	8.98204e-11	17.5972	9.37488e-09	14.6343	4240.05	4041.64	1281.87	1347.21	427.289	0.317166
392	Chromosome11	8722.49	200.0	2.3114e-10	23.7251	8.02862e-09	1.175	12909.0	11818.1	5193.93	3939.35	1731.31	0.439491
432	Chromosome10	9303.33	200.0	8.60616e-11	31.1008	9.05379e-09	10.8823	4289.08	3672.57	2215.5	1224.19	738.501	0.603258
458	Chromosome17	2558.51	20.0	2.29714e-10	10.9163	8.34977e-09	7.17028	20173.8	19808.7	3820.41	6602.9	1273.47	0.192865
476	Chromosome9	9257.44	200.0	1.33054e-10	23.7652	8.6964e-09	2.97482	6740.7	6169.12	2716.43	2056.37	905.477	0.440327
486	Chromosome9	9552.22	200.0	8.35098e-11	36.4598	9.10938e-09	15.983	4079.91	3281.37	2424.52	1093.79	808.173	0.738875
494	Chromosome9	9238.72	200.0	1.01187e-10	34.2378	8.98336e-09	13.3803	5054.6	4178.69	2843.87	1392.9	947.957	0.680565
511	Chromosome6	9150.73	200.0	1.2979e-10	38.0681	8.83688e-09	16.2054	6554.89	5160.52	4041.73	1720.17	1347.24	0.783202
537	Chromosome10	9352.75	20.0	4.99964e-11	20.2378	9.65818e-09	17.7044	2310.62	2167.97	799.282	722.657	266.427	0.368677
561	Chromosome7	8822.15	200.0	9.63838e-11	38.4506	9.03097e-09	17.3841	4787.77	3749.52	2977.22	1249.84	992.408	0.794029
578	Chromosome13	10433.6	2.0	1.08265e-10	5.46654	9.21368e-09	4.85957	5313.24	5289.08	506.163	1763.03	168.721	0.0956997
587	Chromosome13	10854.7	2.0	9.87015e-11	6.20762	9.28408e-09	5.58564	4669.86	4642.48	504.96	1547.49	168.32	0.108769
610	Chromosome20	3914.68	20.0	8.16296e-11	23.8841	9.45382e-09	20.5702	3867.22	3536.06	1565.79	1178.69	521.93	0.442806
633	Chromosome20	4378.61	200.0	1.16806e-10	21.9257	8.7763e-09	0.907378	6496.59	6026.68	2425.85	2008.89	808.616	0.402518
656	Chromosome15	2345.43	2.0	1.22834e-10	11.1509	9.11944e-09	9.96745	8371.19	8213.15	1618.94	2737.72	539.645	0.197115
667	Chromosome15	3405.24	2.0	1.86803e-10	13.2396	8.66845e-09	11.2625	11744.3	11432.2	2689.73	3810.73	896.578	0.235277
691	Chromosome19	2666.62	200.0	2.08242e-10	20.8944	8.11314e-09	358.203	14441.1	13491.4	5150.36	4497.14	1716.79	0.38175
707	Chromosome11	8933.5	2.0	5.04178e-11	8.32704	9.63632e-09	7.84246	2356.03	2331.19	341.207	777.062	113.736	0.146366
732	Chromosome17	3560.61	200.0	1.90213e-10	16.2462	8.21566e-09	354.664	12054.9	11573.5	3372.54	3857.84	1124.18	0.291401
756	Chromosome15	3236.8	20.0	1.21776e-10	15.9341	9.14373e-09	12.6057	6094.55	5860.38	1673.15	1953.46	557.716	0.285502
768	Chromosome15	3328.23	20.0	2.00967e-10	12.4646	8.56401e-09	9.00204	12781.4	12480.2	2758.7	4160.06	919.566	0.221046
788	Chromosome8	9343.22	20.0	4.76368e-11	23.9664	9.68259e-09	21.3323	2143.5	1958.69	870.689	652.898	290.23	0.444525
806	Chromosome13	9372.07	20.0	1.01748e-10	7.5516	9.26504e-09	5.19872	6803.84	6744.83	894.154	2248.28	298.051	0.132569
817	Chromosome13	8971.7	20.0	1.571e-10	7.8412	8.86427e-09	5.32359	15263.8	15121.1	2082.41	5040.37	694.138	0.137716
842	Chromosome5	8477.33	200.0	1.55971e-10	34.0376	8.63451e-09	11.7827	8175.06	6774.43	4575.89	2258.14	1525.3	0.675465
865	Chromosome17	2934.05	2.0	9.75123e-11	68.7049	9.72008e-09	64.7132	5253.8	1908.03	4895.08	636.011	1631.69	2.56551
884	Chromosome6	8960.32	20.0	7.39959e-11	20.4186	9.49348e-09	17.5154	3429.92	3214.42	1196.62	1071.47	398.873	0.372266
911	Chromosome14	2672.01	200.0	1.82938e-10	26.9053	8.34747e-09	3.96385	13646.0	12168.9	6175.02	4056.29	2058.34	0.507444
932	Chromosome16	3901.22	20.0	5.55306e-11	14.8054	9.60909e-09	12.2804	2540.51	2456.16	649.194	818.721	216.398	0.264313
941	Chromosome16	4607.17	20.0	5.15014e-11	12.9883	9.6345e-09	10.6042	2377.07	2316.25	534.249	772.084	178.083	0.230653
948	Chromosome16	2611.93	20.0	1.30505e-10	11.69	9.06684e-09	8.65112	8017.43	7851.13	1624.47	2617.04	541.489	0.206909
962	Chromosome7	8823.94	2.0	3.61157e-11	10.9352	9.74163e-09	10.4697	1744.97	1713.29	331.02	571.096	110.34	0.193208
985	Chromosome19	3904.98	20.0	6.00595e-11	19.7749	9.58754e-09	16.9931	2749.7	2587.55	930.296	862.516	310.099	0.359528
997	Chromosome19	3540.69	20.0	1.16459e-10	20.0957	9.19879e-09	16.5026	5819.82	5465.51	1999.62	1821.84	666.541	0.365862
1017	Chromosome3	9015.22	200.0	2.06966e-10	19.8801	8.15287e-09	358.37	11349.8	10673.4	3859.53	3557.8	1286.51	0.361602
1038	Chromosome15	3977.55	200.0	1.6332e-10	17.977	8.41424e-09	356.46	8766.2	8338.24	2705.56	2779.41	901.854	0.324477
1064	Chromosome4	8901.94	200.0	1.99337e-10	31.7847	8.33158e-09	8.77291	10688.9	9085.91	5630.13	3028.64	1876.71	0.619656
1082	Chromosome8	8728.77	200.0	1.02547e-10	34.9671	8.98077e-09	13.9962	5302.03	4344.92	3038.62	1448.31	1012.87	0.699352
1107	Chromosome19	3197.53	2.0	7.73768e-11	19.0357	9.46496e-09	17.7893	3751.4	3546.26	1223.54	1182.09	407.848	0.345024
1118	Chromosome19	3873.31	2.0	8.05094e-11	17.5685	9.43881e-09	16.3636	3925.9	3742.78	1185.01	1247.59	395.005	0.316613
1136	Chromosome10	8752.6	2.0	6.86987e-11	8.25882	9.50406e-09	7.6671	3368.9	3333.96	483.925	1111.32	161.308	0.14515
1158	Chromosome16	5121.3	2.0	3.799e-11	11.8292	9.72911e-09	11.3187	1884.41	1844.39	386.294	614.795	128.765	0.209443
1167	Chromosome16	4286.89	2.0	3.82707e-11	11.2565	9.72653e-09	10.7572	1894.53	1858.08	369.816	619.362	123.272	0.199031
1174	Chromosome16	2377.1	2.0	1.31765e-10	9.89348	9.05186e-09	8.75658	11523.2	11351.8	1979.87	3783.93	659.958	0.174411
1184	Chromosome9	9574.56	20.0	7.7068e-11	11.6013	9.44981e-09	9.13697	3582.26	3509.08	720.391	1169.69	240.13	0.205294
1192	Chromosome9	8928.09	20.0	8.7921e-11	18.1611	9.39004e-09	15.1895	4210.08	4000.35	1312.24	1333.45	437.412	0.328031
1206	Chromosome13	9080.17	200.0	1.28818e-10	12.4084	8.69164e-09	353.071	14922.8	14574.2	3206.58	4858.07	1068.86	0.220017
1217	Chromosome13	10097.0	200.0	1.73073e-10	12.2602	8.37488e-09	352.504	9595.22	9376.38	2037.56	3125.46	679.188	0.217308
1238	Chromosome11	9008.7	20.0	4.2328e-11	16.5921	9.70532e-09	14.2622	1943.38	1862.46	554.944	620.819	184.981	0.297963
1260	Chromosome18	4064.24	200.0	1.6504e-10	19.1963	8.40731e-09	357.537	9050.03	8546.82	2975.7	2848.94	991.899	0.348164
1269	Chromosome18	3707.19	200.0	1.94533e-10	21.5408	8.21205e-09	358.921	10644.0	9900.55	3908.08	3300.18	1302.69	0.394733
1286	Chromosome8	8712.27	2.0	4.932e-11	9.99616	9.64587e-09	9.45986	2331.31	2295.91	404.673	765.305	134.891	0.176258
1311	Chromosome3	9569.65	2.0	3.9248e-11	12.9275	9.7212e-09	12.382	1775.98	1730.97	397.319	576.989	132.44	0.229536
1332	Chromosome2	1656.57	2.0	6.01423e-11	16.9619	9.57986e-09	16.04	4710.23	4505.33	1374.14	1501.78	458.048	0.305004
1363	Chromosome2	1575.75	20.0	1.03308e-10	23.622	9.30619e-09	19.9805	7292.92	6681.84	2922.28	2227.28	974.094	0.437347
1392	Chromosome4	8935.11	2.0	6.78145e-11	11.302	9.51469e-09	10.5668	3215.99	3153.62	630.271	1051.21	210.09	0.199856
1411	Chromosome18	3698.8	20.0	1.88373e-10	14.9085	8.66668e-09	10.9749	11936.4	11534.6	3070.94	3844.86	1023.65	0.266238
1422	Chromosome18	3397.56	20.0	1.41082e-10	16.3896	9.00903e-09	12.809	7633.6	7323.41	2153.95	2441.14	717.983	0.294118